Wavelength (nm)	Intensity	Corrected
Unusable	47598
Dark	46983
Dark	47010
Dark	46998
Bevel	46823
Bevel	47244
Bevel	47247
Bevel	47415
Bevel	47476
Bevel	47537
199.28	47666	47654.0
199.84	47414	47401.0
200.39	47484	47471.2
200.95	47427	47414.0
201.50	47250	47236.4
202.06	47188	47174.2
202.61	47146	47132.0
203.16	47281	47267.5
203.72	47503	47490.3
204.27	47418	47405.0
204.83	47508	47495.3
205.38	47759	47747.4
205.93	47662	47650.0
206.49	47604	47591.7
207.04	47487	47474.2
207.60	47360	47346.7
208.15	47223	47209.3
208.70	47361	47347.8
209.25	47374	47360.8
209.81	47453	47440.1
210.36	47470	47457.2
210.91	47692	47680.1
211.47	47541	47528.5
212.02	47676	47664.1
212.57	47536	47523.4
213.12	47618	47605.8
213.67	47417	47404.0
214.23	47417	47404.0
214.78	47263	47249.4
215.33	47251	47237.4
215.88	47512	47499.3
216.43	47225	47211.3
216.98	47333	47319.6
217.53	47661	47649.0
218.09	47408	47394.9
218.64	47508	47495.3
219.19	47618	47605.8
219.74	47693	47681.1
220.29	47440	47427.1
220.84	47360	47346.7
221.39	47456	47443.1
221.94	47263	47249.4
222.49	47279	47265.5
223.04	47527	47514.4
223.59	47589	47576.7
224.14	47733	47721.3
224.69	47763	47751.5
225.24	47501	47488.3
225.79	47520	47507.4
226.34	47552	47539.5
226.89	47352	47338.7
227.43	47458	47445.1
227.98	47457	47444.1
228.53	47356	47342.7
229.08	47488	47475.2
229.63	47410	47396.9
230.18	47705	47693.2
230.73	47680	47668.1
231.27	47673	47661.0
231.82	47707	47695.2
232.37	47474	47461.2
232.92	47262	47248.4
233.46	47417	47404.0
234.01	47322	47308.6
234.56	47312	47298.6
235.11	47430	47417.0
235.65	47582	47569.6
236.20	47524	47511.4
236.75	47671	47659.0
237.29	47650	47637.9
237.84	47700	47688.2
238.39	47808	47796.7
238.93	47566	47553.6
239.48	47504	47491.3
240.03	47222	47208.3
240.57	47352	47338.7
241.12	47314	47300.6
241.66	47449	47436.1
242.21	47359	47345.7
242.75	47597	47584.7
243.30	47452	47439.1
243.85	47654	47642.0
244.39	47634	47621.9
244.94	47591	47578.7
245.48	47609	47596.8
246.03	47342	47328.7
246.57	47391	47377.9
247.11	47505	47492.3
247.66	47330	47316.6
248.20	47393	47379.9
248.75	47549	47536.5
249.29	47662	47650.0
249.84	47825	47813.8
250.38	47529	47516.4
250.92	47641	47628.9
251.47	47772	47760.5
252.01	47358	47344.7
252.55	47412	47398.9
253.10	47433	47420.0
253.64	47523	47510.4
254.18	47461	47448.1
254.73	47459	47446.1
255.27	47471	47458.2
255.81	47548	47535.5
256.35	47688	47676.1
256.90	47793	47781.6
257.44	47631	47618.9
257.98	47633	47620.9
258.52	47419	47406.0
259.06	47470	47457.2
259.61	47272	47258.4
260.15	47312	47298.6
260.69	47290	47276.5
261.23	47577	47564.6
261.77	47437	47424.0
262.31	47515	47502.4
262.85	47496	47483.3
263.39	47717	47705.2
263.94	47502	47489.3
264.48	47450	47437.1
265.02	47409	47395.9
265.56	47423	47410.0
266.10	47549	47536.5
266.64	47205	47191.2
267.18	47290	47276.5
267.72	47411	47397.9
268.26	47549	47536.5
268.80	47639	47626.9
269.34	47465	47452.2
269.88	47563	47550.6
270.42	47648	47635.9
270.96	47596	47583.7
271.49	47422	47409.0
272.03	47532	47519.4
272.57	47218	47204.2
273.11	47192	47178.2
273.65	47287	47273.5
274.19	47532	47519.4
274.73	47698	47686.2
275.26	47608	47595.8
275.80	47833	47821.8
276.34	47666	47654.0
276.88	47587	47574.7
277.42	47462	47449.1
277.95	47448	47435.1
278.49	47469	47456.2
279.03	47384	47370.8
279.57	47321	47307.6
280.10	47361	47347.8
280.64	47457	47444.1
281.18	47656	47644.0
281.71	47772	47760.5
282.25	47608	47595.8
282.79	47791	47779.6
283.32	47338	47324.7
283.86	47392	47378.9
284.40	47214	47200.2
284.93	47316	47302.6
285.47	47535	47522.4
286.00	47533	47520.4
286.54	47419	47406.0
287.08	47538	47525.5
287.61	47555	47542.5
288.15	47694	47682.1
288.68	47753	47741.4
289.22	47745	47733.4
289.75	47548	47535.5
290.29	47345	47331.7
290.82	47613	47600.8
291.36	47450	47437.1
291.89	47371	47357.8
292.43	47387	47373.8
292.96	47430	47417.0
293.49	47731	47719.3
294.03	47733	47721.3
294.56	47584	47571.6
295.10	47925	47914.3
295.63	47830	47818.8
296.16	47772	47760.5
296.70	47995	47984.6
297.23	47799	47787.6
297.76	47960	47949.5
298.30	47914	47903.2
298.83	47908	47897.2
299.36	47890	47879.1
299.90	48061	48051.0
300.43	48273	48264.2
300.96	48068	48058.0
301.49	48135	48125.4
302.02	48730	48724.3
302.56	48881	48876.3
303.09	49814	49817.2
303.62	50381	50389.7
304.15	50103	50108.9
304.68	49499	49499.3
305.22	50103	50108.9
305.75	50384	50392.7
306.28	49676	49677.9
306.81	49110	49107.1
307.34	48863	48858.2
307.87	48619	48612.5
308.40	48405	48397.1
308.93	48143	48133.5
309.46	47811	47799.7
309.99	47839	47827.8
310.53	47906	47895.2
311.06	48094	48084.2
311.59	48262	48253.2
312.12	48237	48228.0
312.65	48081	48071.1
313.18	48236	48227.0
313.70	48095	48085.2
314.23	48316	48307.5
314.76	48200	48190.8
315.29	48217	48207.9
315.82	48066	48056.0
316.35	47908	47897.2
316.88	47946	47935.4
317.41	48018	48007.8
317.94	48050	48039.9
318.47	48220	48210.9
318.99	48433	48425.2
319.52	48096	48086.2
320.05	48302	48293.4
320.58	48151	48141.5
321.11	48394	48386.0
321.64	47971	47960.5
322.16	47829	47817.8
322.69	47722	47710.3
323.22	47794	47782.6
323.75	47926	47915.3
324.27	47796	47784.6
324.80	47986	47975.6
325.33	48075	48065.1
325.85	48084	48074.1
326.38	47925	47914.3
326.91	47961	47950.5
327.43	47886	47875.1
327.96	47647	47634.9
328.49	47727	47715.3
329.01	47635	47622.9
329.54	47800	47788.6
330.07	47752	47740.4
330.59	47856	47844.9
331.12	47807	47795.7
331.64	48121	48111.3
332.17	48175	48165.7
332.69	47916	47905.2
333.22	47787	47775.6
333.74	47768	47756.5
334.27	47700	47688.2
334.79	47682	47670.1
335.32	47556	47543.5
335.84	47582	47569.6
336.37	47955	47944.4
336.89	47778	47766.5
337.42	47872	47861.0
337.94	47985	47974.6
338.47	48025	48014.8
338.99	47919	47908.2
339.51	47747	47735.4
340.04	47822	47810.8
340.56	47719	47707.3
341.08	47887	47876.1
341.61	47436	47423.0
342.13	47775	47763.5
342.65	47981	47970.6
343.18	47753	47741.4
343.70	48075	48065.1
344.22	47843	47831.9
344.75	47926	47915.3
345.27	47974	47963.5
345.79	47787	47775.6
346.31	47747	47735.4
346.84	47595	47582.7
347.36	47802	47790.7
347.88	47713	47701.2
348.40	47682	47670.1
348.92	47644	47631.9
349.44	47852	47840.9
349.97	47978	47967.6
350.49	47918	47907.2
351.01	47803	47791.7
351.53	47773	47761.5
352.05	47873	47862.0
352.57	47523	47510.4
353.09	47492	47479.3
353.61	47738	47726.3
354.13	47461	47448.1
354.65	47494	47481.3
355.17	47744	47732.4
355.69	47880	47869.0
356.22	47846	47834.9
356.74	47740	47728.4
357.25	47841	47829.8
357.77	47779	47767.5
358.29	47695	47683.1
358.81	47627	47614.8
359.33	47593	47580.7
359.85	47554	47541.5
360.37	47676	47664.1
360.89	47582	47569.6
361.41	47693	47681.1
361.93	47928	47917.3
362.45	47987	47976.6
362.97	48121	48111.3
363.48	47944	47933.4
364.00	47832	47820.8
364.52	47735	47723.3
365.04	47564	47551.6
365.56	47751	47739.4
366.08	47654	47642.0
366.59	47789	47777.6
367.11	47693	47681.1
367.63	47971	47960.5
368.15	48151	48141.5
368.66	47997	47986.7
369.18	47935	47924.3
369.70	47876	47865.0
370.21	48124	48114.4
370.73	47969	47958.5
371.25	47777	47765.5
371.76	47726	47714.3
372.28	47789	47777.6
372.80	47676	47664.1
373.31	47858	47846.9
373.83	48054	48044.0
374.35	48078	48068.1
374.86	48192	48182.8
375.38	48355	48346.7
375.89	48049	48038.9
376.41	48409	48401.1
376.92	48042	48031.9
377.44	47911	47900.2
377.95	48017	48006.8
378.47	48311	48302.5
378.98	48167	48157.6
379.50	48196	48186.8
380.01	48220	48210.9
380.53	48440	48432.3
381.04	48519	48511.8
381.56	48522	48514.8
382.07	48412	48404.1
382.59	48098	48088.2
383.10	48123	48113.4
383.61	48174	48164.7
384.13	47999	47988.7
384.64	48146	48136.5
385.16	48174	48164.7
385.67	48120	48110.3
386.18	48467	48459.5
386.70	48511	48503.7
387.21	48533	48525.9
387.72	48385	48376.9
388.23	48266	48257.2
388.75	48452	48444.4
389.26	48204	48194.8
389.77	48371	48362.8
390.29	48364	48355.8
390.80	48509	48501.7
391.31	48544	48537.0
391.82	48734	48728.3
392.33	48738	48732.3
392.85	48764	48758.5
393.36	48945	48940.8
393.87	48948	48943.9
394.38	48870	48865.3
394.89	48833	48828.0
395.40	48789	48783.7
395.91	48935	48930.8
396.43	48952	48947.9
396.94	49088	49084.9
397.45	49163	49160.5
397.96	49306	49304.7
398.47	49444	49443.9
398.98	49584	49585.1
399.49	49659	49660.7
400.00	49695	49697.1
400.51	49763	49765.7
401.02	49817	49820.2
401.53	49711	49713.2
402.04	49875	49878.7
402.55	49675	49676.9
403.06	49937	49941.3
403.57	50223	50230.1
404.08	50249	50256.3
404.59	50305	50312.9
405.10	50285	50292.7
405.61	50363	50371.5
406.11	50397	50405.8
406.62	50269	50276.5
407.13	50353	50361.4
407.64	50297	50304.8
408.15	50386	50394.7
408.66	50585	50595.8
409.16	50919	50933.4
409.67	50951	50965.7
410.18	50914	50928.3
410.69	51501	51522.0
411.20	51269	51287.3
411.70	51511	51532.1
412.21	51251	51269.1
412.72	51268	51286.3
413.23	51624	51646.4
413.73	51493	51513.9
414.24	51437	51457.2
414.75	51614	51636.3
415.25	51986	52012.8
415.76	52178	52207.2
416.27	52709	52744.9
416.77	52510	52543.4
417.28	53016	53056.0
417.79	53056	53096.5
418.29	53290	53333.6
418.80	53552	53599.1
419.30	53890	53941.8
419.81	54077	54131.3
420.32	54465	54524.7
420.82	54973	55039.9
421.33	55393	55465.9
421.83	55847	55926.5
422.34	56356	56442.8
422.84	57063	57160.1
423.35	57469	57572.0
423.85	58566	58684.8
424.36	59153	59280.2
424.86	60257	60399.9
425.37	61048	61201.9
425.87	62282	62452.9
426.38	63790	63981.2
426.88	65470	65683.4
427.38	65535	65749.3
427.89	65535	65749.3
428.39	65535	65749.3
428.90	65535	65749.3
429.40	65535	65749.3
429.90	65535	65749.3
430.41	65535	65749.3
430.91	65535	65749.3
431.41	65535	65749.3
431.92	65535	65749.3
432.42	65535	65749.3
432.92	65535	65749.3
433.42	65535	65749.3
433.93	65535	65749.3
434.43	65535	65749.3
434.93	65535	65749.3
435.43	65535	65749.3
435.94	65535	65749.3
436.44	65535	65749.3
436.94	65535	65749.3
437.44	65535	65749.3
437.94	65535	65749.3
438.44	65535	65749.3
438.95	65535	65749.3
439.45	65535	65749.3
439.95	65535	65749.3
440.45	65535	65749.3
440.95	65535	65749.3
441.45	65535	65749.3
441.95	65535	65749.3
442.45	65535	65749.3
442.95	65535	65749.3
443.45	65535	65749.3
443.95	65535	65749.3
444.45	65535	65749.3
444.95	65535	65749.3
445.45	65535	65749.3
445.95	65535	65749.3
446.45	65535	65749.3
446.95	65535	65749.3
447.45	65535	65749.3
447.95	65535	65749.3
448.45	65535	65749.3
448.95	65535	65749.3
449.45	65535	65749.3
449.95	65535	65749.3
450.45	65535	65749.3
450.95	65535	65749.3
451.45	65535	65749.3
451.94	65535	65749.3
452.44	65535	65749.3
452.94	65535	65749.3
453.44	65535	65749.3
453.94	65535	65749.3
454.44	65535	65749.3
454.93	65535	65749.3
455.43	65535	65749.3
455.93	65535	65749.3
456.43	65535	65749.3
456.92	65535	65749.3
457.42	65535	65749.3
457.92	65535	65749.3
458.42	65535	65749.3
458.91	65535	65749.3
459.41	65535	65749.3
459.91	65535	65749.3
460.40	65535	65749.3
460.90	65535	65749.3
461.40	65535	65749.3
461.89	65535	65749.3
462.39	65535	65749.3
462.88	65535	65749.3
463.38	65535	65749.3
463.88	65535	65749.3
464.37	65535	65749.3
464.87	65535	65749.3
465.36	65535	65749.3
465.86	65535	65749.3
466.35	65535	65749.3
466.85	65535	65749.3
467.34	65535	65749.3
467.84	65535	65749.3
468.33	65535	65749.3
468.83	65535	65749.3
469.32	65535	65749.3
469.82	65535	65749.3
470.31	65535	65749.3
470.81	65535	65749.3
471.30	65535	65749.3
471.79	65535	65749.3
472.29	65535	65749.3
472.78	65535	65749.3
473.27	65535	65749.3
473.77	65535	65749.3
474.26	65535	65749.3
474.76	65535	65749.3
475.25	65535	65749.3
475.74	65535	65749.3
476.23	65535	65749.3
476.73	65535	65749.3
477.22	65535	65749.3
477.71	65535	65749.3
478.21	65535	65749.3
478.70	65535	65749.3
479.19	65535	65749.3
479.68	65535	65749.3
480.18	65535	65749.3
480.67	64068	64262.9
481.16	62108	62276.5
481.65	60799	60949.5
482.14	59841	59978.0
482.63	59076	59202.1
483.13	58463	58580.3
483.62	57789	57896.6
484.11	57340	57441.1
484.60	56551	56640.6
485.09	55702	55779.4
485.58	55239	55309.7
486.07	54542	54602.8
486.56	54563	54624.1
487.05	53989	54042.1
487.54	53770	53820.1
488.03	53020	53060.0
488.52	52440	52472.5
489.01	51821	51845.8
489.50	51173	51190.2
489.99	50714	50726.2
490.48	50504	50513.9
490.97	50191	50197.8
491.46	49998	50002.9
491.95	49705	49707.2
492.44	49564	49564.9
492.93	49478	49478.2
493.42	49222	49220.0
493.91	49034	49030.5
494.40	48746	48740.4
494.89	48621	48614.5
495.38	48260	48251.2
495.86	48214	48204.9
496.35	47788	47776.6
496.84	47898	47887.1
497.33	47636	47623.9
497.82	47399	47385.9
498.31	47404	47390.9
498.79	47244	47230.3
499.28	47102	47087.9
499.77	46863	46848.3
500.26	46798	46783.1
500.74	46405	46389.5
501.23	46197	46181.4
501.72	46090	46074.4
502.21	45910	45894.5
502.69	45825	45809.6
503.18	45800	45784.6
503.67	45707	45691.7
504.15	45764	45748.7
504.64	45455	45440.2
505.13	45651	45635.8
505.61	45340	45325.5
506.10	45502	45487.1
506.59	45533	45518.0
507.07	45273	45258.7
507.56	44685	44673.2
508.04	45101	45087.3
508.53	44803	44790.6
509.01	44745	44732.9
509.50	44806	44793.6
509.99	44941	44927.9
510.47	44769	44756.7
510.96	44629	44617.5
511.44	44403	44392.8
511.93	44543	44532.0
512.41	44274	44264.7
512.90	44207	44198.2
513.38	44040	44032.5
513.86	44175	44166.4
514.35	43941	43934.3
514.83	44010	44002.7
515.32	43974	43967.0
515.80	44228	44219.0
516.29	44073	44065.2
516.77	44198	44189.3
517.25	44140	44131.7
517.74	44094	44086.0
518.22	44060	44052.3
518.70	43896	43889.7
519.19	43649	43645.0
519.67	43739	43734.1
520.15	43802	43796.5
520.64	43769	43763.8
521.12	43745	43740.0
521.60	43899	43892.7
522.08	43907	43900.6
522.57	43828	43822.3
523.05	43687	43682.6
523.53	43652	43647.9
524.01	43702	43697.4
524.50	43512	43509.3
524.98	43524	43521.2
525.46	43558	43554.9
525.94	43507	43504.4
526.42	43436	43434.1
526.90	43647	43643.0
527.39	43679	43674.7
527.87	43860	43854.0
528.35	43875	43868.9
528.83	43808	43802.5
529.31	43663	43658.8
529.79	43632	43628.1
530.27	43385	43383.7
530.75	43426	43424.2
531.23	43463	43460.9
531.71	43426	43424.2
532.19	43537	43534.1
532.67	43497	43494.5
533.15	43601	43597.4
533.63	43810	43804.4
534.11	43726	43721.2
534.59	43543	43540.0
535.07	43687	43682.6
535.55	43627	43623.2
536.03	43269	43269.0
536.51	43382	43380.7
536.99	43514	43511.3
537.47	43615	43611.3
537.95	43534	43531.1
538.43	43574	43570.7
538.91	43576	43572.7
539.39	43858	43852.0
539.87	43675	43670.7
540.34	43734	43729.1
540.82	43677	43672.7
541.30	43673	43668.7
541.78	43598	43594.5
542.26	43612	43608.3
542.73	43434	43432.2
543.21	43860	43854.0
543.69	43726	43721.2
544.17	43896	43889.7
544.65	43996	43988.8
545.12	43912	43905.5
545.60	43824	43818.3
546.08	44046	44038.4
546.55	43760	43754.9
547.03	43802	43796.5
547.51	43560	43556.8
547.98	43693	43688.5
548.46	43610	43606.3
548.94	43742	43737.1
549.41	43638	43634.1
549.89	43717	43712.3
550.37	44035	44027.5
550.84	43865	43858.9
551.32	43952	43945.2
551.79	43722	43717.3
552.27	43730	43725.2
552.75	43509	43506.4
553.22	43645	43641.0
553.70	43611	43607.3
554.17	43628	43624.2
554.65	43743	43738.1
555.12	43901	43894.6
555.60	44114	44105.9
556.07	43867	43860.9
556.55	44031	44023.5
557.02	43859	43853.0
557.50	43735	43730.1
557.97	43857	43851.0
558.45	43644	43640.0
558.92	43645	43641.0
559.39	43556	43552.9
559.87	43605	43601.4
560.34	43819	43813.4
560.82	43953	43946.2
561.29	43851	43845.1
561.76	43843	43837.1
562.24	43802	43796.5
562.71	43652	43647.9
563.18	43931	43924.4
563.66	43731	43726.2
564.13	43581	43577.6
564.60	43505	43502.4
565.08	43590	43586.5
565.55	43646	43642.0
566.02	43882	43875.8
566.49	43659	43654.9
566.97	43926	43919.4
567.44	43979	43972.0
567.91	43934	43927.4
568.38	43877	43870.8
568.85	43808	43802.5
569.33	43672	43667.7
569.80	43560	43556.8
570.27	43636	43632.1
570.74	43650	43645.9
571.21	43720	43715.3
571.68	43817	43811.4
572.16	43787	43781.6
572.63	43926	43919.4
573.10	44008	44000.7
573.57	43899	43892.7
574.04	43901	43894.6
574.51	43883	43876.8
574.98	43702	43697.4
575.45	43615	43611.3
575.92	43677	43672.7
576.39	43609	43605.3
576.86	43764	43758.9
577.33	43970	43963.0
577.80	43945	43938.3
578.27	43888	43881.7
578.74	43901	43894.6
579.21	43979	43972.0
579.68	43977	43970.0
580.15	43720	43715.3
580.62	43542	43539.0
581.09	43717	43712.3
581.56	43558	43554.9
582.03	43856	43850.0
582.50	43731	43726.2
582.97	43722	43717.3
583.43	43904	43897.6
583.90	43976	43969.0
584.37	43942	43935.3
584.84	44082	44074.1
585.31	43845	43839.1
585.78	43690	43685.6
586.24	43748	43743.0
586.71	43719	43714.3
587.18	43728	43723.2
587.65	43568	43564.8
588.11	43881	43874.8
588.58	43884	43877.8
589.05	44099	44091.0
589.52	44140	44131.7
589.98	44048	44040.4
590.45	43626	43622.2
590.92	43911	43904.5
591.39	43617	43613.3
591.85	43733	43728.1
592.32	43937	43930.3
592.79	43663	43658.8
593.25	43866	43859.9
593.72	43917	43910.5
594.18	44102	44094.0
594.65	43892	43885.7
595.12	44170	44161.5
595.58	43997	43989.8
596.05	44074	44066.2
596.51	43769	43763.8
596.98	43805	43799.5
597.45	43692	43687.5
597.91	43697	43692.5
598.38	43788	43782.6
598.84	43838	43832.2
599.31	44023	44015.6
599.77	44047	44039.4
600.24	44118	44109.9
600.70	44197	44188.3
601.17	44008	44000.7
601.63	44064	44056.3
602.09	43894	43887.7
602.56	43902	43895.6
603.02	43840	43834.2
603.49	43888	43881.7
603.95	43893	43886.7
604.41	43701	43696.5
604.88	43835	43829.2
605.34	44266	44256.8
605.81	44083	44075.1
606.27	44210	44201.2
606.73	43868	43861.9
607.20	43832	43826.2
607.66	43818	43812.4
608.12	43906	43899.6
608.59	43756	43750.9
609.05	43986	43978.9
609.51	43815	43809.4
609.97	44011	44003.7
610.44	43992	43984.9
610.90	44081	44073.1
611.36	44079	44071.2
611.82	44147	44138.6
612.29	44093	44085.1
612.75	43788	43782.6
613.21	43887	43880.8
613.67	43962	43955.1
614.13	43959	43952.1
614.59	43812	43806.4
615.06	43933	43926.4
615.52	43845	43839.1
615.98	44144	44135.7
616.44	44101	44093.0
616.90	44141	44132.7
617.36	43991	43983.9
617.82	43961	43954.1
618.28	43896	43889.7
618.74	43871	43864.9
619.20	43904	43897.6
619.66	43854	43848.0
620.13	44096	44088.0
620.59	43875	43868.9
621.05	43902	43895.6
621.51	44102	44094.0
621.97	44196	44187.3
622.43	44180	44171.4
622.88	44025	44017.6
623.34	44078	44070.2
623.80	44032	44024.5
624.26	43908	43901.6
624.72	43892	43885.7
625.18	43953	43946.2
625.64	43904	43897.6
626.10	44051	44043.4
626.56	44148	44139.6
627.02	44204	44195.2
627.48	44152	44143.6
627.93	44036	44028.5
628.39	44252	44242.9
628.85	44134	44125.7
629.31	43977	43970.0
629.77	43984	43976.9
630.23	43953	43946.2
630.68	44020	44012.6
631.14	44212	44203.2
631.60	43884	43877.8
632.06	44229	44220.0
632.51	44217	44208.1
632.97	44104	44096.0
633.43	44205	44196.2
633.89	44207	44198.2
634.34	44082	44074.1
634.80	44059	44051.3
635.26	43962	43955.1
635.71	43850	43844.1
636.17	43988	43980.9
636.63	44015	44007.7
637.08	44116	44107.9
637.54	44228	44219.0
638.00	44126	44117.8
638.45	44107	44098.9
638.91	44122	44113.8
639.36	44016	44008.7
639.82	43899	43892.7
640.28	43946	43939.2
640.73	43991	43983.9
641.19	43933	43926.4
641.64	43813	43807.4
642.10	44163	44154.5
642.55	43978	43971.0
643.01	44317	44307.4
643.46	44044	44036.4
643.92	44389	44378.9
644.37	44121	44112.8
644.83	44078	44070.2
645.28	43641	43637.0
645.74	43820	43814.3
646.19	43887	43880.8
646.65	43996	43988.8
647.10	44140	44131.7
647.55	44092	44084.1
648.01	44030	44022.6
648.46	44294	44284.6
648.92	44148	44139.6
649.37	44359	44349.1
649.82	44138	44129.7
650.28	44001	43993.8
650.73	43912	43905.5
651.18	43909	43902.6
651.64	43877	43870.8
652.09	43995	43987.8
652.54	44220	44211.1
652.99	44116	44107.9
653.45	44172	44163.5
653.90	44256	44246.8
654.35	44166	44157.5
654.81	44405	44394.8
655.26	44120	44111.8
655.71	44101	44093.0
656.16	43997	43989.8
656.61	44007	43999.7
657.07	44015	44007.7
657.52	44015	44007.7
657.97	44134	44125.7
658.42	44138	44129.7
658.87	44159	44150.5
659.32	44228	44219.0
659.77	44214	44205.1
660.23	44255	44245.8
660.68	43867	43860.9
661.13	44002	43994.8
661.58	44166	44157.5
662.03	43972	43965.0
662.48	44133	44124.7
662.93	43987	43979.9
663.38	43893	43886.7
663.83	44178	44169.4
664.28	44310	44300.5
664.73	44412	44401.8
665.18	44240	44231.0
665.63	44226	44217.1
666.08	44217	44208.1
666.53	44030	44022.6
666.98	43901	43894.6
667.43	44156	44147.6
667.88	44088	44080.1
668.33	44068	44060.3
668.78	44149	44140.6
669.23	44212	44203.2
669.68	44206	44197.2
670.13	44201	44192.2
670.57	44484	44473.3
671.02	44223	44214.1
671.47	44133	44124.7
671.92	44125	44116.8
672.37	43932	43925.4
672.82	44081	44073.1
673.27	43869	43862.9
673.71	44056	44048.3
674.16	44247	44237.9
674.61	44246	44236.9
675.06	44247	44237.9
675.51	44160	44151.5
675.95	44205	44196.2
676.40	44204	44195.2
676.85	44241	44231.9
677.30	44129	44120.8
677.74	43995	43987.8
678.19	44119	44110.9
678.64	44045	44037.4
679.08	44135	44126.7
679.53	44422	44411.7
679.98	44385	44375.0
680.42	44253	44243.9
680.87	44421	44410.7
681.32	44334	44324.3
681.76	44217	44208.1
682.21	44108	44099.9
682.65	44121	44112.8
683.10	44130	44121.8
683.55	44156	44147.6
683.99	44237	44228.0
684.44	44191	44182.3
684.88	44360	44350.1
685.33	44303	44293.5
685.77	44168	44159.5
686.22	44463	44452.5
686.66	44337	44327.3
687.11	44216	44207.1
687.55	44252	44242.9
688.00	44215	44206.1
688.44	44222	44213.1
688.89	44076	44068.2
689.33	44187	44178.3
689.78	44296	44286.6
690.22	44457	44446.5
690.67	44378	44368.0
691.11	44633	44621.5
691.55	44290	44280.6
692.00	44167	44158.5
692.44	44126	44117.8
692.89	44148	44139.6
693.33	43946	43939.2
693.77	43955	43948.2
694.22	44075	44067.2
694.66	44269	44259.7
695.10	44319	44309.4
695.55	44372	44362.0
695.99	44592	44580.7
696.43	44354	44344.2
696.88	44361	44351.1
697.32	44465	44454.4
697.76	44209	44200.2
698.20	44161	44152.5
698.65	44135	44126.7
699.09	44125	44116.8
699.53	44074	44066.2
699.97	44419	44408.7
700.41	44337	44327.3
700.86	44397	44386.9
701.30	44538	44527.0
701.74	44457	44446.5
702.18	44423	44412.7
702.62	44292	44282.6
703.06	44341	44331.2
703.51	44225	44216.1
703.95	44169	44160.5
704.39	44150	44141.6
704.83	44261	44251.8
705.27	44228	44219.0
705.71	44433	44422.6
706.15	44380	44370.0
706.59	44741	44728.9
707.03	44507	44496.2
707.47	44362	44352.1
707.91	44317	44307.4
708.35	44121	44112.8
708.79	44095	44087.0
709.23	44189	44180.3
709.67	44137	44128.7
710.11	44450	44439.5
710.55	44183	44174.4
710.99	44596	44584.7
711.43	44350	44340.2
711.87	44413	44402.8
712.31	44573	44561.8
712.75	44226	44217.1
713.19	44407	44396.8
713.63	44452	44441.5
714.07	44100	44092.0
714.51	44116	44107.9
714.94	44175	44166.4
715.38	44339	44329.3
715.82	44266	44256.8
716.26	44484	44473.3
716.70	44366	44356.1
717.14	44348	44338.2
717.57	44544	44533.0
718.01	44440	44429.6
718.45	44327	44317.3
718.89	44178	44169.4
719.33	44181	44172.4
719.76	44244	44234.9
720.20	44214	44205.1
720.64	44361	44351.1
721.07	44462	44451.5
721.51	44284	44274.6
721.95	44489	44478.3
722.39	44527	44516.1
722.82	44382	44372.0
723.26	44333	44323.3
723.70	44203	44194.2
724.13	44219	44210.1
724.57	44148	44139.6
725.01	44191	44182.3
725.44	44317	44307.4
725.88	44357	44347.1
726.31	44567	44555.8
726.75	44467	44456.4
727.19	44464	44453.5
727.62	44539	44528.0
728.06	44320	44310.4
728.49	44433	44422.6
728.93	44127	44118.8
729.36	44166	44157.5
729.80	44257	44247.8
730.23	44420	44409.7
730.67	44348	44338.2
731.11	44438	44427.6
731.54	44601	44589.6
731.97	44491	44480.3
732.41	44535	44524.0
732.84	44493	44482.3
733.28	44462	44451.5
733.71	44308	44298.5
734.15	44464	44453.5
734.58	44190	44181.3
735.02	44125	44116.8
735.45	44272	44262.7
735.88	44446	44435.6
736.32	44392	44381.9
736.75	44482	44471.3
737.18	44577	44565.8
737.62	44595	44583.7
738.05	44375	44365.0
738.48	44456	44445.5
738.92	44318	44308.4
739.35	44059	44051.3
739.78	44205	44196.2
740.22	44104	44096.0
740.65	44182	44173.4
741.08	44274	44264.7
741.52	44531	44520.0
741.95	44548	44536.9
742.38	44479	44468.4
742.81	44619	44607.5
743.24	44400	44389.9
743.68	44600	44588.6
744.11	44163	44154.5
744.54	44361	44351.1
744.97	44100	44092.0
745.40	44304	44294.5
745.84	44246	44236.9
746.27	44488	44477.3
746.70	44481	44470.3
747.13	44471	44460.4
747.56	44447	44436.6
747.99	44579	44567.8
748.42	44629	44617.5
748.85	44402	44391.8
749.29	44339	44329.3
749.72	44101	44093.0
750.15	44291	44281.6
750.58	44518	44507.1
751.01	44381	44371.0
751.44	44507	44496.2
751.87	44654	44642.3
752.30	44411	44400.8
752.73	44673	44661.2
753.16	44554	44542.9
753.59	44483	44472.3
754.02	44488	44477.3
754.45	44251	44241.9
754.88	44508	44497.2
755.31	44477	44466.4
755.74	44327	44317.3
756.17	44492	44481.3
756.59	44528	44517.1
757.02	44561	44549.9
757.45	44589	44577.7
757.88	44639	44627.4
758.31	44234	44225.0
758.74	44472	44461.4
759.17	44457	44446.5
759.60	44368	44358.1
760.02	44302	44292.5
760.45	44174	44165.4
760.88	44442	44431.6
761.31	44463	44452.5
761.74	44642	44630.4
762.17	44570	44558.8
762.59	44537	44526.0
763.02	44890	44877.2
763.45	44645	44633.4
763.88	44514	44503.1
764.30	44265	44255.8
764.73	44198	44189.3
765.16	44225	44216.1
765.58	44378	44368.0
766.01	44380	44370.0
766.44	44600	44588.6
766.87	44557	44545.9
767.29	44548	44536.9
767.72	44432	44421.7
768.15	44560	44548.9
768.57	44640	44628.4
769.00	44467	44456.4
769.42	44492	44481.3
769.85	44362	44352.1
770.28	44331	44321.3
770.70	44378	44368.0
771.13	44285	44275.6
771.55	44447	44436.6
771.98	44612	44600.6
772.41	44616	44604.5
772.83	44845	44832.4
773.26	44486	44475.3
773.68	44718	44706.0
774.11	44463	44452.5
774.53	44414	44403.8
774.96	44237	44228.0
775.38	44296	44286.6
775.81	44460	44449.5
776.23	44474	44463.4
776.66	44605	44593.6
777.08	44487	44476.3
777.50	44607	44595.6
777.93	44635	44623.4
778.35	44539	44528.0
778.78	44578	44566.8
779.20	44389	44378.9
779.62	44418	44407.7
780.05	44361	44351.1
780.47	44192	44183.3
780.90	44557	44545.9
781.32	44351	44341.2
781.74	44438	44427.6
782.17	44555	44543.9
782.59	44601	44589.6
783.01	44737	44724.9
783.44	44766	44753.8
783.86	44217	44208.1
784.28	44362	44352.1
784.70	44401	44390.9
785.13	44367	44357.1
785.55	44360	44350.1
785.97	44519	44508.1
786.39	44543	44532.0
786.82	44631	44619.5
787.24	44763	44750.8
787.66	44635	44623.4
788.08	44809	44796.5
788.50	44638	44626.4
788.93	44670	44658.3
789.35	44432	44421.7
789.77	44375	44365.0
790.19	44213	44204.1
790.61	44440	44429.6
791.03	44356	44346.1
791.46	44539	44528.0
791.88	44688	44676.2
792.30	44670	44658.3
792.72	44695	44683.1
793.14	44498	44487.2
793.56	44543	44532.0
793.98	44611	44599.6
794.40	44363	44353.1
794.82	44194	44185.3
795.24	44315	44305.4
795.66	44416	44405.8
796.08	44349	44339.2
796.50	44613	44601.6
796.92	44444	44433.6
797.34	44790	44777.6
797.76	44775	44762.7
798.18	44682	44670.2
798.60	44504	44493.2
799.02	44497	44486.2
799.44	44225	44216.1
799.86	44363	44353.1
800.28	44444	44433.6
800.70	44421	44410.7
801.12	44377	44367.0
801.54	44623	44611.5
801.95	44576	44564.8
802.37	44938	44924.9
802.79	44729	44716.9
803.21	44552	44540.9
803.63	44521	44510.1
804.05	44531	44520.0
804.46	44283	44273.6
804.88	44309	44299.5
805.30	44372	44362.0
805.72	44323	44313.4
806.14	44490	44479.3
806.55	44658	44646.3
806.97	44630	44618.5
807.39	44749	44736.8
807.81	44551	44539.9
808.22	44601	44589.6
808.64	44747	44734.8
809.06	44318	44308.4
809.48	44318	44308.4
809.89	44462	44451.5
810.31	44363	44353.1
810.73	44347	44337.2
811.14	44592	44580.7
811.56	44715	44703.0
811.98	44642	44630.4
812.39	44741	44728.9
812.81	44621	44609.5
813.23	44602	44590.6
813.64	44529	44518.1
814.06	44288	44278.6
814.47	44263	44253.8
814.89	44255	44245.8
815.31	44424	44413.7
815.72	44545	44534.0
816.14	44602	44590.6
816.55	44574	44562.8
816.97	44808	44795.5
817.38	44771	44758.7
817.80	44575	44563.8
818.21	44517	44506.1
818.63	44561	44549.9
819.04	44426	44415.7
819.46	44498	44487.2
819.87	44144	44135.7
820.29	44514	44503.1
820.70	44560	44548.9
821.12	44615	44603.6
821.53	44631	44619.5
821.94	44727	44715.0
822.36	44771	44758.7
822.77	44678	44666.2
823.19	44453	44442.5
823.60	44633	44621.5
824.01	44364	44354.1
824.43	44364	44354.1
824.84	44511	44500.2
825.26	44610	44598.6
825.67	44714	44702.0
826.08	44610	44598.6
826.49	44574	44562.8
826.91	44679	44667.2
827.32	44699	44687.1
827.73	44626	44614.5
828.15	44620	44608.5
828.56	44399	44388.9
828.97	44339	44329.3
829.38	44478	44467.4
829.80	44541	44530.0
830.21	44426	44415.7
830.62	44458	44447.5
831.03	44770	44757.7
831.45	44668	44656.3
831.86	44709	44697.0
832.27	44621	44609.5
832.68	44753	44740.8
833.09	44445	44434.6
833.50	44544	44533.0
833.92	44347	44337.2
834.33	44612	44600.6
834.74	44600	44588.6
835.15	44441	44430.6
835.56	44562	44550.9
835.97	44725	44713.0
836.38	44694	44682.1
836.79	44698	44686.1
837.21	44681	44669.2
837.62	44610	44598.6
838.03	44568	44556.8
838.44	44501	44490.2
838.85	44547	44535.9
839.26	44499	44488.2
839.67	44478	44467.4
840.08	44521	44510.1
840.49	44633	44621.5
840.90	44768	44755.7
841.31	44651	44639.4
841.72	44834	44821.4
842.13	44670	44658.3
842.54	44578	44566.8
842.95	44471	44460.4
843.36	44482	44471.3
843.76	44532	44521.0
844.17	44506	44495.2
844.58	44527	44516.1
844.99	44585	44573.7
845.40	44618	44606.5
845.81	44829	44816.4
846.22	44910	44897.1
846.63	44930	44917.0
847.04	44711	44699.0
847.44	44631	44619.5
847.85	44509	44498.2
848.26	44293	44283.6
848.67	44506	44495.2
849.08	44533	44522.0
849.48	44569	44557.8
849.89	44683	44671.2
850.30	44858	44845.3
850.71	44797	44784.6
851.11	44730	44717.9
851.52	44727	44715.0
851.93	44602	44590.6
852.34	44475	44464.4
852.74	44354	44344.2
853.15	44439	44428.6
853.56	44564	44552.8
853.97	44648	44636.4
854.37	44696	44684.1
854.78	44513	44502.1
855.19	44969	44955.8
855.59	44644	44632.4
856.00	44710	44698.0
856.40	44715	44703.0
856.81	44495	44484.3
857.22	44610	44598.6
857.62	44556	44544.9
858.03	44379	44369.0
858.44	44571	44559.8
858.84	44585	44573.7
859.25	44655	44643.3
859.65	44754	44741.8
860.06	44849	44836.3
860.46	44835	44822.4
860.87	44743	44730.9
861.27	44694	44682.1
861.68	44677	44665.2
862.08	44549	44537.9
862.49	44563	44551.9
862.89	44481	44470.3
863.30	44537	44526.0
863.70	44571	44559.8
864.11	44829	44816.4
864.51	44781	44768.7
864.92	44836	44823.4
865.32	44810	44797.5
865.73	44859	44846.3
866.13	44759	44746.8
866.53	44792	44779.6
866.94	44625	44613.5
867.34	44453	44442.5
867.75	44723	44711.0
868.15	44599	44587.6
868.55	44616	44604.5
868.96	44899	44886.1
869.36	44906	44893.1
869.76	45033	45019.6
870.17	44931	44918.0
870.57	44909	44896.1
870.97	44720	44708.0
871.38	44858	44845.3
871.78	44577	44565.8
872.18	44593	44581.7
872.58	44515	44504.1
872.99	44765	44752.8
873.39	44880	44867.2
873.79	44846	44833.4
874.19	45062	45048.4
874.60	45111	45097.3
875.00	44898	44885.1
875.40	44900	44887.1
875.80	44971	44957.8
876.20	44777	44764.7
876.61	44686	44674.2
877.01	44745	44732.9
877.41	44773	44760.7
877.81	44858	44845.3
878.21	45061	45047.4
878.61	45090	45076.3
879.01	45229	45214.8
879.42	45145	45131.1
879.82	45044	45030.5
880.22	45180	45166.0
880.62	44877	44864.2
881.02	45037	45023.5
881.42	44796	44783.6
881.82	44751	44738.8
882.22	44860	44847.3
882.62	44949	44935.9
883.02	45062	45048.4
883.42	45095	45081.3
883.82	45313	45298.6
884.22	45060	45046.4
884.62	45239	45224.8
885.02	44946	44932.9
885.42	45101	45087.3
885.82	44922	44909.0
886.22	44919	44906.0
886.62	45195	45181.0
887.02	44833	44820.4
887.42	45148	45134.1
887.82	45320	45305.6
888.22	45416	45401.3
888.62	45173	45159.0
889.01	45226	45211.9
889.41	45172	45158.0
889.81	45160	45146.1
890.21	45110	45096.3
890.61	44911	44898.1
891.01	45108	45094.3
891.41	45100	45086.3
891.80	45196	45182.0
892.20	45236	45221.8
892.60	45158	45144.1
893.00	45223	45208.9
893.40	45407	45392.3
893.79	45336	45321.5
894.19	45314	45299.6
894.59	45380	45365.4
894.99	45210	45195.9
895.39	44978	44964.8
895.78	45354	45339.5
896.18	45163	45149.1
896.58	45286	45271.7
896.97	45322	45307.6
897.37	45389	45374.4
897.77	45540	45525.0
898.16	45505	45490.1
898.56	45551	45536.0
898.96	45402	45387.3
899.35	45312	45297.6
899.75	45093	45079.3
900.15	45169	45155.0
900.54	45112	45098.3
900.94	45357	45342.5
901.34	45405	45390.3
901.73	45415	45400.3
902.13	45595	45579.9
902.52	45629	45613.9
902.92	45459	45444.2
903.32	45340	45325.5
903.71	45403	45388.3
904.11	45487	45472.1
904.50	45208	45193.9
904.90	45385	45370.4
905.29	45391	45376.4
905.69	45290	45275.7
906.08	45427	45412.3
906.48	45601	45585.9
906.87	45439	45424.3
907.27	45676	45660.8
907.66	45847	45831.6
908.06	45633	45617.8
908.45	45412	45397.3
908.85	45550	45535.0
909.24	45344	45329.5
909.63	45320	45305.6
910.03	45614	45598.9
910.42	45475	45460.2
910.82	45452	45437.2
911.21	45796	45780.6
911.60	45490	45475.1
912.00	45765	45749.6
912.39	45650	45634.8
912.78	45757	45741.7
913.18	45505	45490.1
913.57	45377	45362.4
913.96	45554	45539.0
914.36	45396	45381.4
914.75	45520	45505.1
915.14	45516	45501.1
915.54	45722	45706.7
915.93	45596	45580.9
916.32	45939	45923.5
916.71	45748	45732.7
917.11	45765	45749.6
917.50	45573	45558.0
917.89	45624	45608.9
918.28	45627	45611.9
918.68	45484	45469.1
919.07	45346	45331.5
919.46	45578	45563.0
919.85	45599	45583.9
920.24	45707	45691.7
920.64	45707	45691.7
921.03	45771	45755.6
921.42	45799	45783.6
921.81	45607	45591.9
922.20	45991	45975.4
922.59	45784	45768.6
922.98	45511	45496.1
923.38	45612	45596.9
923.77	45526	45511.1
924.16	45628	45612.9
924.55	45701	45685.7
924.94	45788	45772.6
925.33	45774	45758.6
925.72	45866	45850.5
926.11	45825	45809.6
926.50	45856	45840.5
926.89	45647	45631.8
927.28	45738	45722.7
927.67	45507	45492.1
928.06	45530	45515.0
928.45	45640	45624.8
928.84	45931	45915.5
929.23	45739	45723.7
929.62	46039	46023.4
930.01	45943	45927.5
930.40	45798	45782.6
930.79	46056	46040.4
931.18	45666	45650.8
931.57	45871	45855.5
931.96	45643	45627.8
932.35	45629	45613.9
932.74	45654	45638.8
933.12	45618	45602.9
933.51	45870	45854.5
933.90	45650	45634.8
934.29	45837	45821.6
934.68	46063	46047.4
935.07	46018	46002.4
935.46	45926	45910.5
935.84	45581	45565.9
936.23	45786	45770.6
936.62	45622	45606.9
937.01	45679	45663.8
937.40	45814	45798.6
937.78	45515	45500.1
938.17	45791	45775.6
938.56	45961	45945.5
938.95	45827	45811.6
939.33	46094	46078.4
939.72	45942	45926.5
940.11	45905	45889.5
940.50	45957	45941.5
940.88	45869	45853.5
941.27	45578	45563.0
941.66	45735	45719.7
942.04	45765	45749.6
942.43	45751	45735.7
942.82	45881	45865.5
943.20	45967	45951.5
943.59	46026	46010.4
943.98	46158	46142.4
944.36	46231	46215.4
944.75	46049	46033.4
945.14	45898	45882.5
945.52	45697	45681.7
945.91	45622	45606.9
946.29	45743	45727.7
946.68	45598	45582.9
947.07	45897	45881.5
947.45	45827	45811.6
947.84	45968	45952.5
948.22	46208	46192.4
948.61	46171	46155.4
948.99	45921	45905.5
949.38	45984	45968.5
949.76	45802	45786.6
950.15	45819	45803.6
950.53	45943	45927.5
950.92	45603	45587.9
951.30	45905	45889.5
951.69	45735	45719.7
952.07	46132	46116.4
952.46	45931	45915.5
952.84	46011	45995.4
953.22	45993	45977.4
953.61	46134	46118.4
953.99	45946	45930.5
954.38	45731	45715.7
954.76	45949	45933.5
955.14	45700	45684.7
955.53	45735	45719.7
955.91	45749	45733.7
956.30	45991	45975.4
956.68	46002	45986.4
957.06	46096	46080.4
957.45	46091	46075.4
957.83	46067	46051.4
958.21	46145	46129.4
958.60	45918	45902.5
958.98	45947	45931.5
959.36	45997	45981.4
959.74	45809	45793.6
960.13	46050	46034.4
960.51	45928	45912.5
960.89	46005	45989.4
961.28	46025	46009.4
961.66	46212	46196.4
962.04	46265	46249.4
962.42	46190	46174.4
962.80	46088	46072.4
963.19	46034	46018.4
963.57	46023	46007.4
963.95	45799	45783.6
964.33	45739	45723.7
964.71	46052	46036.4
965.10	45963	45947.5
965.48	45938	45922.5
965.86	46157	46141.4
966.24	46255	46239.4
966.62	46135	46119.4
967.00	46111	46095.4
967.38	45886	45870.5
967.76	46097	46081.4
968.14	45985	45969.5
968.53	45840	45824.6
968.91	45867	45851.5
969.29	46021	46005.4
969.67	46091	46075.4
970.05	46247	46231.4
970.43	46253	46237.4
970.81	46360	46344.5
971.19	46507	46491.6
971.57	46343	46327.5
971.95	46195	46179.4
972.33	46134	46118.4
972.71	45951	45935.5
973.09	46112	46096.4
973.47	45912	45896.5
973.85	46096	46080.4
974.23	46207	46191.4
974.61	46166	46150.4
974.99	46269	46253.4
975.37	46349	46333.5
975.75	46152	46136.4
976.12	46390	46374.5
976.50	46178	46162.4
976.88	46043	46027.4
977.26	46178	46162.4
977.64	45977	45961.5
978.02	46021	46005.4
978.40	46275	46259.4
978.78	46231	46215.4
979.15	46306	46290.5
979.53	46402	46386.5
979.91	46485	46469.6
980.29	46345	46329.5
980.67	46366	46350.5
981.05	46186	46170.4
981.42	46192	46176.4
981.80	46058	46042.4
982.18	46044	46028.4
982.56	46236	46220.4
982.93	46136	46120.4
983.31	46259	46243.4
983.69	46300	46284.5
984.07	46445	46429.6
984.44	46522	46506.7
984.82	46306	46290.5
985.20	46280	46264.4
985.57	46345	46329.5
985.95	46312	46296.5
986.33	46028	46012.4
986.70	46221	46205.4
987.08	46285	46269.4
987.46	46246	46230.4
987.83	46301	46285.5
988.21	46394	46378.5
988.59	46471	46455.6
988.96	46637	46621.8
989.34	46385	46369.5
989.72	46364	46348.5
990.09	46326	46310.5
990.47	46249	46233.4
990.84	46153	46137.4
991.22	46296	46280.5
991.59	46307	46291.5
991.97	46253	46237.4
992.35	46377	46361.5
992.72	46489	46473.6
993.10	46485	46469.6
993.47	46616	46600.8
993.85	46402	46386.5
994.22	46471	46455.6
994.60	46546	46530.7
994.97	46354	46338.5
995.35	46248	46232.4
995.72	46387	46371.5
996.09	46418	46402.5
996.47	46494	46478.6
996.84	46551	46535.7
997.22	46596	46580.8
997.59	46742	46727.0
997.97	46549	46533.7
998.34	46399	46383.5
998.71	46357	46341.5
999.09	46453	46437.6
999.46	46198	46182.4
999.84	46349	46333.5
1000.21	46392	46376.5
1000.58	46529	46513.7
1000.96	46573	46557.7
1001.33	46670	46654.9
1001.70	46626	46610.8
1002.08	46755	46740.0
1002.45	46551	46535.7
1002.82	46534	46518.7
1003.20	46575	46559.7
1003.57	46292	46276.5
1003.94	46432	46416.6
1004.31	46601	46585.8
1004.69	46447	46431.6
1005.06	46487	46471.6
1005.43	46587	46571.7
1005.80	46765	46750.0
1006.18	46584	46568.7
1006.55	46804	46789.1
1006.92	46888	46873.3
1007.29	46677	46661.9
1007.67	46538	46522.7
1008.04	46553	46537.7
1008.41	46585	46569.7
1008.78	46679	46663.9
1009.15	46389	46373.5
1009.52	46571	46555.7
1009.90	46828	46813.2
1010.27	46807	46792.1
1010.64	46897	46882.3
1011.01	46875	46860.3
1011.38	46688	46672.9
1011.75	46616	46600.8
1012.12	46557	46541.7
1012.49	46533	46517.7
1012.86	46569	46553.7
1013.23	46744	46729.0
1013.61	46673	46657.9
1013.98	46586	46570.7
1014.35	46923	46908.4
1014.72	46931	46916.4
1015.09	46884	46869.3
1015.46	47070	47055.8
1015.83	46637	46621.8
1016.20	46856	46841.2
1016.57	46639	46623.8
1016.94	46614	46598.8
1017.31	46515	46499.6
1017.68	46560	46544.7
1018.05	46653	46637.8
1018.42	46781	46766.1
1018.79	46820	46805.2
1019.15	46808	46793.1
1019.52	46866	46851.3
1019.89	46950	46935.5
1020.26	46851	46836.2
1020.63	46721	46706.0
1021.00	46477	46461.6
1021.37	46691	46675.9
1021.74	46516	46500.6
1022.11	46566	46550.7
1022.48	46750	46735.0
1022.84	47056	47041.7
1023.21	46961	46946.5
1023.58	47043	47028.7
1023.95	46933	46918.4
1024.32	46813	46798.1
1024.69	46758	46743.0
1025.05	46798	46783.1
1025.42	46876	46861.3
1025.79	46438	46422.6
1026.16	46733	46718.0
1026.52	46804	46789.1
1026.89	46760	46745.0
1027.26	46899	46884.3
1027.63	46974	46959.5
1027.99	46993	46978.6
1028.36	46993	46978.6
1028.73	46921	46906.4
1029.10	46813	46798.1
1029.46	46993	46978.6
1029.83	46657	46641.8
1030.20	46694	46678.9
1030.56	46683	46667.9
1030.93	46674	46658.9
1031.30	46964	46949.5
1031.66	47201	47187.2
1032.03	47020	47005.6
1032.40	47027	47012.7
1032.76	46910	46895.4
1033.13	47012	46997.6
1033.50	46936	46921.4
1033.86	46869	46854.3
1034.23	46824	46809.2
1034.59	46682	46666.9
1034.96	46687	46671.9
1035.33	46933	46918.4
1035.69	46990	46975.6
1036.06	47082	47067.8
1036.42	47110	47095.9
1036.79	47146	47132.0
1037.15	47230	47216.3
1037.52	47001	46986.6
1037.88	46847	46832.2
1038.25	47091	47076.9
1038.61	46860	46845.2
1038.98	46751	46736.0
1039.34	46800	46785.1
1039.71	46905	46890.4
1040.07	46944	46929.4
1040.44	47070	47055.8
1040.80	47192	47178.2
1041.17	47134	47120.0
1041.53	47107	47092.9
1041.89	46927	46912.4
1042.26	46991	46976.6
1042.62	47011	46996.6
1042.99	46909	46894.4
1043.35	46993	46978.6
1043.71	46996	46981.6
1044.08	47014	46999.6
1044.44	47014	46999.6
1044.81	47184	47170.1
1045.17	47235	47221.3
1045.53	47041	47026.7
1045.90	47074	47059.8
1046.26	47040	47025.7
1046.62	46652	46636.8
1046.98	47003	46988.6
1047.35	46832	46817.2
1047.71	46853	46838.2
1048.07	46846	46831.2
1048.44	47191	47177.2
1048.80	47285	47271.5
1049.16	47248	47234.3
1049.52	47167	47153.1
1049.89	47180	47166.1
1050.25	46920	46905.4
1050.61	47006	46991.6
1050.97	46985	46970.6
1051.34	47034	47019.7
1051.70	46916	46901.4
1052.06	46913	46898.4
1052.42	46978	46963.5
1052.78	47271	47257.4
1053.15	47211	47197.2
1053.51	47001	46986.6
1053.87	47173	47159.1
1054.23	47364	47350.8
1054.59	46898	46883.3
1054.95	46970	46955.5
1055.31	46918	46903.4
1055.67	46871	46856.3
1056.04	46955	46940.5
1056.40	47024	47009.7
1056.76	47256	47242.4
1057.12	47236	47222.3
1057.48	47168	47154.1
1057.84	47307	47293.6
1058.20	47337	47323.7
1058.56	47255	47241.4
1058.92	47050	47035.7
1059.28	47106	47091.9
1059.64	46888	46873.3
1060.00	46853	46838.2
1060.36	46738	46723.0
1060.72	47167	47153.1
1061.08	47077	47062.8
1061.44	47227	47213.3
1061.80	47330	47316.6
1062.16	47267	47253.4
1062.52	47312	47298.6
1062.88	47060	47045.8
1063.24	47117	47102.9
1063.60	47045	47030.7
1063.96	46961	46946.5
1064.32	47008	46993.6
1064.68	47023	47008.7
1065.04	47005	46990.6
1065.40	47166	47152.1
1065.75	47169	47155.1
1066.11	47140	47126.0
1066.47	47417	47404.0
1066.83	47250	47236.4
1067.19	47054	47039.7
1067.55	47054	47039.7
1067.91	47100	47085.9
1068.26	46865	46850.3
1068.62	47023	47008.7
1068.98	46910	46895.4
1069.34	47181	47167.1
1069.70	47125	47111.0
1070.05	47374	47360.8
1070.41	47294	47280.5
1070.77	46931	46916.4
1071.13	47189	47175.2
1071.49	47121	47106.9
1071.84	46821	46806.2
1072.20	47043	47028.7
1072.56	46940	46925.4
1072.91	47020	47005.6
1073.27	47074	47059.8
1073.63	47099	47084.9
1073.99	47148	47134.0
1074.34	47355	47341.7
1074.70	47279	47265.5
1075.06	47076	47061.8
1075.41	47315	47301.6
1075.77	47149	47135.0
1076.13	47015	47000.6
1076.48	47070	47055.8
1076.84	46767	46752.0
1077.20	47106	47091.9
1077.55	47075	47060.8
1077.91	47129	47115.0
1078.26	47198	47184.2
1078.62	47272	47258.4
1078.98	47449	47436.1
1079.33	47213	47199.2
1079.69	47237	47223.3
1080.04	47143	47129.0
1080.40	46776	46761.1
1080.75	47178	47164.1
1081.11	47044	47029.7
1081.47	47031	47016.7
1081.82	46930	46915.4
1082.18	47261	47247.4
1082.53	47358	47344.7
1082.89	47326	47312.6
1083.24	47389	47375.9
1083.60	47225	47211.3
1083.95	47030	47015.7
1084.31	47253	47239.4
1084.66	47135	47121.0
1085.01	46949	46934.5
1085.37	47073	47058.8
1085.72	47053	47038.7
1086.08	47208	47194.2
1086.43	47144	47130.0
1086.79	47300	47286.5
1087.14	47499	47486.3
1087.49	47239	47225.3
1087.85	47339	47325.7
1088.20	47039	47024.7
1088.56	47044	47029.7
1088.91	47193	47179.2
1089.26	46820	46805.2
1089.62	46981	46966.5
1089.97	46960	46945.5
1090.32	47023	47008.7
1090.68	47306	47292.6
1091.03	47314	47300.6
1091.38	47316	47302.6
1091.74	47167	47153.1
1092.09	47127	47113.0
1092.44	47064	47049.8
1092.79	47160	47146.1
1093.15	46902	46887.3
1093.50	46854	46839.2
1093.85	47012	46997.6
1094.21	47195	47181.2
1094.56	47325	47311.6
1094.91	47311	47297.6
1095.26	47226	47212.3
1095.61	47348	47334.7
1095.97	47241	47227.3
1096.32	47264	47250.4
1096.67	47293	47279.5
1097.02	47101	47086.9
1097.37	46980	46965.5
1097.73	47080	47065.8
1098.08	46972	46957.5
1098.43	47132	47118.0
1098.78	47251	47237.4
1099.13	47180	47166.1
1099.48	47350	47336.7
1099.83	47223	47209.3
1100.19	47438	47425.0
1100.54	47164	47150.1
1100.89	47068	47053.8
1101.24	47186	47172.1
1101.59	46967	46952.5
1101.94	46923	46908.4
1102.29	47015	47000.6
1102.64	47380	47366.8
1102.99	47221	47207.3
1103.34	47225	47211.3
1103.69	47270	47256.4
1104.04	47464	47451.1
1104.39	47229	47215.3
1104.74	47223	47209.3
1105.09	46957	46942.5
1105.44	47139	47125.0
1105.79	47148	47134.0
1106.14	46822	46807.2
1106.49	47089	47074.8
1106.84	47147	47133.0
1107.19	47137	47123.0
1107.54	47361	47347.8
1107.89	47392	47378.9
1108.24	47302	47288.5
1108.59	47163	47149.1
1108.94	47230	47216.3
Bevel	47282
Bevel	46956
Bevel	46979
Bevel	46870
Bevel	47072
Bevel	47201
Dark	47151
Dark	47319
Dark	47481
Dark	47222
